        t [s]          omega [1/s]
        0.296              0.10600
        0.802              0.14993
        1.150              0.22723
        1.405              0.27019
        1.624              0.30542
        1.816              0.35085
        1.989              0.37852
        2.146              0.42540
        2.291              0.43771
        2.431              0.46266
        2.564              0.48334
        2.689              0.51943
        2.808              0.53798
        2.922              0.56896
        3.032              0.57343
        3.139              0.60049
        3.242              0.62210
        3.341              0.64241
        3.439              0.64098
        3.534              0.68674
        3.627              0.65632
        3.718              0.72625
        3.806              0.70734
        3.893              0.73181
        3.978              0.75095
        4.059              0.80521
        4.140              0.75087
        4.222              0.78371
        4.301              0.79752
        4.380              0.80523
        4.457              0.81204
        4.534              0.83419
        4.608              0.84915
        4.681              0.87749
        4.753              0.87798
        4.824              0.88225
        4.896              0.86824
        4.967              0.89400
        5.037              0.90792
        5.106              0.91815
        5.174              0.93337
        5.241              0.94264
        5.307              0.96083
        5.372              0.97583
        5.436              0.97270
        5.501              0.96318
        5.566              0.98086
        5.629              1.01610
        5.691              1.01197
        5.753              1.01472
        5.814              1.04143
        5.874              1.05486
        5.933              1.04890
        5.993              1.05548
        6.052              1.07296
        6.111              1.08189
        6.169              1.06462
        6.226              1.12669
        6.282              1.11919
        6.340              1.06656
        6.395              1.20787
        6.449              1.15397
        6.504              1.13352
        6.558              1.15778
        6.612              1.20107
        6.664              1.18241
        6.719              1.13481
        6.772              1.24709
        6.823              1.20132
        6.875              1.22712
        6.925              1.25761
        6.976              1.24419
        7.027              1.21263
        7.077              1.28294
        7.127              1.23668
        7.177              1.27959
        7.224              1.39681
        7.271              1.26666
        7.322              1.21596
        7.372              1.29867
        7.420              1.33197
        7.467              1.31845
        7.514              1.34268
        7.561              1.35237
        7.607              1.37855
        7.653              1.37519
        7.699              1.35051
        7.745              1.37423
        7.790              1.40052
        7.835              1.40317
        7.880              1.37779
        7.926              1.38923
        7.970              1.43877
        8.014              1.43078
        8.058              1.43998
        8.101              1.42214
        8.145              1.46666
        8.187              1.51616
        8.230              1.40049
        8.274              1.49991
        8.315              1.52713
        8.357              1.48897
        8.398              1.56546
        8.439              1.51896
        8.480              1.49628
        8.522              1.53444
        8.563              1.51764
        8.604              1.59070
        8.644              1.54034
        8.684              1.54631
        8.725              1.54078
        8.765              1.58871
        8.805              1.58552
        8.844              1.61978
        8.883              1.58351
        8.923              1.61038
        8.961              1.62667
        9.000              1.63908
        9.039              1.59690
        9.077              1.67526
        9.116              1.56962
        9.154              1.70289
        9.192              1.62755
        9.230              1.65756
        9.268              1.67474
        9.305              1.77154
        9.342              1.62872
        9.380              1.67905
        9.417              1.68782
        9.454              1.68612
        9.492              1.68116
        9.529              1.70945
        9.565              1.72388
        9.601              1.76408
        9.637              1.74596
        9.673              1.73956
        9.710              1.69458
        9.746              1.72913
        9.783              1.74109
        9.819              1.74559
        9.855              1.76151
        9.890              1.76520
        9.926              1.78521
        9.961              1.80103
        9.996              1.78241
       10.031              1.75102
       10.067              1.77008
       10.102              1.81864
       10.137              1.79822
       10.172              1.79311
       10.206              1.82595
       10.241              1.83903
       10.275              1.81644
       10.310              1.81811
       10.344              1.83858
       10.378              1.83948
       10.413              1.79991
       10.447              1.89552
       10.480              1.87069
       10.515              1.77179
       10.548              1.99733
       10.580              1.89706
       10.614              1.85216
       10.648              1.88456
       10.680              1.94535
       10.713              1.90462
       10.747              1.81943
       10.780              1.99012
       10.812              1.90680
       10.845              1.93730
       10.877              1.97684
       10.909              1.94838
       10.942              1.89036
       10.974              1.99028
       11.006              1.91201
       11.039              1.96843
       11.069              2.14242
       11.100              1.93510
       11.133              1.84974
       11.166              1.96688
       11.198              2.00830
       11.229              1.97966
       11.261              2.00927
       11.292              2.01418
       11.323              2.04679
       11.354              2.03424
       11.385              1.99017
       11.416              2.01971
       11.447              2.05060
       11.478              2.04869
       11.509              2.00540
       11.540              2.01575
       11.571              2.08145
       11.601              2.06534
       11.632              2.07282
       11.662              2.03933
       11.693              2.09506
       11.722              2.16613
       11.752              1.99075
       11.783              2.13364
       11.812              2.15939
       11.842              2.10755
       11.871              2.20396
       11.900              2.13894
       11.929              2.09337
       11.959              2.14359
       11.989              2.11409
       12.018              2.20844
       12.047              2.13231
       12.076              2.13620
       12.106              2.12397
       12.135              2.18246
       12.164              2.17373
       12.192              2.21424
       12.221              2.15995
       12.250              2.19236
       12.278              2.20707
       12.307              2.22087
       12.335              2.15877
       12.364              2.26071
       12.393              2.11159
       12.421              2.28783
       12.449              2.18284
       12.478              2.21804
       12.506              2.23490
       12.534              2.36081
       12.561              2.16657
       12.590              2.22985
       12.618              2.23523
       12.646              2.22760
       12.675              2.21830
       12.703              2.24959
       12.731              2.26652
       12.758              2.31260
       12.785              2.28845
       12.813              2.27415
       12.841              2.21326
       12.869              2.25507
       12.897              2.26789
       12.924              2.26961
       12.952              2.28776
       12.979              2.28929
       13.007              2.31317
       13.034              2.32703
       13.061              2.30386
       13.089              2.25983
       13.116              2.28476
       13.143              2.34222
       13.170              2.31825
       13.197              2.30202
       13.225              2.34787
       13.251              2.35732
       13.278              2.32811
       13.305              2.32378
       13.332              2.34787
       13.359              2.34750
       13.386              2.29272
       13.413              2.41184
       13.439              2.37607
       13.466              2.25080
       13.492              2.52917
       13.518              2.40188
       13.544              2.34317
       13.571              2.37886
       13.597              2.45344
       13.623              2.39972
       13.650              2.28887
       13.676              2.50016
       13.702              2.39359
       13.728              2.42935
       13.753              2.47629
       13.779              2.43669
       13.805              2.36267
       13.831              2.48442
       13.857              2.38241
       13.883              2.45023
       13.907              2.66389
       13.932              2.40234
       13.959              2.29483
       13.986              2.43527
       14.011              2.48631
       14.037              2.44512
       14.062              2.47990
       14.088              2.48203
       14.113              2.52160
       14.138              2.49941
       14.163              2.44727
       14.189              2.47678
       14.214              2.51813
       14.239              2.50718
       14.264              2.45489
       14.290              2.46255
       14.315              2.54584
       14.340              2.51644
       14.365              2.52662
       14.390              2.48211
       14.415              2.55477
       14.439              2.62343
       14.464              2.42080
       14.489              2.57548

