        t [s]          omega [1/s]
        0.208              0.15118
        0.558              0.22037
        0.802              0.30907
        0.983              0.39542
        1.134              0.44094
        1.271              0.48186
        1.394              0.54030
        1.507              0.57446
        1.611              0.64040
        1.708              0.65477
        1.801              0.69058
        1.890              0.71893
        1.975              0.77019
        2.055              0.79515
        2.132              0.83891
        2.207              0.84475
        2.279              0.88312
        2.349              0.91382
        2.417              0.94184
        2.484              0.93697
        2.549              1.00152
        2.613              0.95508
        2.676              1.05413
        2.736              1.02401
        2.797              1.05809
        2.855              1.08427
        2.911              1.16322
        2.967              1.08466
        3.024              1.13306
        3.079              1.15276
        3.133              1.16516
        3.187              1.17585
        3.240              1.20915
        3.291              1.23156
        3.341              1.27495
        3.390              1.27602
        3.440              1.28404
        3.489              1.26427
        3.538              1.30353
        3.586              1.32554
        3.633              1.34140
        3.679              1.36579
        3.725              1.38203
        3.770              1.40971
        3.814              1.43239
        3.858              1.42938
        3.902              1.41618
        3.946              1.44292
        3.989              1.49431
        4.031              1.48903
        4.073              1.49503
        4.115              1.53501
        4.155              1.55500
        4.196              1.54555
        4.236              1.55552
        4.276              1.58174
        4.316              1.59371
        4.356              1.56893
        4.395              1.66252
        4.433              1.64990
        4.472              1.57163
        4.509              1.77995
        4.545              1.70115
        4.583              1.66989
        4.620              1.70720
        4.656              1.77146
        4.692              1.74369
        4.729              1.67313
        4.764              1.83840
        4.799              1.77033
        4.834              1.80724
        4.869              1.85124
        4.903              1.83260
        4.938              1.78542
        4.972              1.88893
        5.006              1.81917
        5.040              1.88154
        5.072              2.05464
        5.104              1.86237
        5.138              1.78708
        5.172              1.90632
        5.205              1.95590
        5.237              1.93301
        5.269              1.97050
        5.301              1.98045
        5.333              2.01950
        5.364              2.01434
        5.395              1.97658
        5.427              2.01229
        5.458              2.04992
        5.488              2.05295
        5.519              2.01803
        5.550              2.03203
        5.581              2.10595
        5.611              2.09471
        5.640              2.10601
        5.670              2.08249
        5.700              2.14604
        5.729              2.21745
        5.758              2.05099
        5.788              2.19351
        5.816              2.23577
        5.845              2.17897
        5.873              2.28964
        5.901              2.22502
        5.929              2.18113
        5.958              2.24454
        5.986              2.21791
        6.014              2.32256
        6.041              2.24851
        6.069              2.25785
        6.097              2.25189
        6.124              2.31925
        6.152              2.31474
        6.178              2.36445
        6.205              2.31245
        6.232              2.35103
        6.259              2.37502
        6.285              2.39344
        6.312              2.33420
        6.338              2.44871
        6.365              2.29321
        6.391              2.48862
        6.417              2.38120
        6.443              2.42424
        6.469              2.44911
        6.494              2.59223
        6.519              2.38453
        6.545              2.45803
        6.570              2.46830
        6.596              2.46993
        6.621              2.45964
        6.647              2.50542
        6.672              2.52211
        6.696              2.58615
        6.721              2.55721
        6.745              2.55103
        6.770              2.48170
        6.795              2.53825
        6.820              2.55347
        6.845              2.56342
        6.869              2.58329
        6.893              2.59348
        6.917              2.62114
        6.941              2.64481
        6.965              2.61729
        6.989              2.57345
        7.014              2.60005
        7.037              2.67568
        7.061              2.64509
        7.085              2.63505
        7.108              2.68536
        7.132              2.70220
        7.155              2.67253
        7.179              2.67072
        7.202              2.70220
        7.225              2.70171
        7.249              2.64696
        7.272              2.78243
        7.295              2.74927
        7.318              2.60330
        7.341              2.93286
        7.363              2.78594
        7.386              2.72034
        7.409              2.76662
        7.431              2.85458
        7.453              2.79717
        7.476              2.66929
        7.499              2.91984
        7.521              2.79728
        7.543              2.84138
        7.565              2.89850
        7.587              2.85675
        7.609              2.76958
        7.631              2.91723
        7.653              2.79853
        7.675              2.88301
        7.696              3.13681
        7.717              2.83129
        7.740              2.70796
        7.763              2.87549
        7.784              2.94011
        7.806              2.89325
        7.827              2.93746
        7.849              2.94403
        7.870              2.98970
        7.891              2.97216
        7.912              2.90795
        7.934              2.95017
        7.955              2.99651
        7.976              2.99292
        7.997              2.92885
        8.018              2.94519
        8.040              3.03878
        8.060              3.01592
        8.081              3.02664
        8.102              2.97688
        8.123              3.06037
        8.143              3.15317
        8.164              2.91394
        8.185              3.10357
        8.205              3.15596
        8.225              3.07379
        8.245              3.21414
        8.265              3.12270
        8.285              3.05426
        8.305              3.12700
        8.326              3.08759
        8.346              3.22132
        8.365              3.11323
        8.386              3.11984
        8.406              3.10074
        8.426              3.18993
        8.446              3.17359
        8.465              3.23746
        8.485              3.15888
        8.505              3.20603
        8.524              3.23104
        8.543              3.24755
        8.563              3.16168
        8.582              3.30919
        8.602              3.09256
        8.622              3.35150
        8.641              3.19823
        8.660              3.25079
        8.680              3.27866
        8.698              3.46169
        8.717              3.17992
        8.737              3.27179
        8.756              3.28181
        8.775              3.27008
        8.794              3.25842
        8.813              3.30773
        8.832              3.32726
        8.851              3.40308
        8.870              3.36504
        8.888              3.34328
        8.907              3.25814
        8.926              3.31901
        8.945              3.33540
        8.964              3.34433
        8.983              3.36655
        9.002              3.37079
        9.020              3.40787
        9.038              3.42986
        9.057              3.38892
        9.076              3.32593
        9.094              3.36625
        9.113              3.45069
        9.131              3.41004
        9.150              3.39722
        9.168              3.45149
        9.186              3.47484
        9.204              3.42970
        9.223              3.42000
        9.241              3.45897
        9.259              3.45658
        9.277              3.37458
        9.296              3.55307
        9.313              3.49852
        9.332              3.31095
        9.350              3.72854
        9.367              3.53448
        9.385              3.44800
        9.403              3.50211
        9.421              3.61178
        9.439              3.53048
        9.457              3.36837
        9.475              3.67571
        9.492              3.52153
        9.510              3.57407
        9.527              3.64232
        9.545              3.58278
        9.562              3.47484
        9.580              3.65261
        9.598              3.50211
        9.615              3.60362
        9.632              3.91324
        9.649              3.53181
        9.667              3.37322
        9.685              3.57971
        9.703              3.65172
        9.720              3.59861
        9.737              3.64196
        9.755              3.64941
        9.772              3.70550
        9.789              3.67337
        9.806              3.59464
        9.823              3.64249
        9.840              3.69291
        9.858              3.68728
        9.875              3.60588
        9.892              3.61701
        9.909              3.72984
        9.926              3.70002
        9.943              3.70917
        9.960              3.64373
        9.977              3.74774
        9.994              3.86124
       10.011              3.54853

