        t [s]          omega [1/s]
        0.069              0.0
        0.519              0.08257
        1.083              0.17102
        1.394              0.24672
        1.636              0.27384
        1.855              0.30334
        2.050              0.34064
        2.224              0.38358
        2.384              0.40451
        2.538              0.41323
        2.679              0.47913
        2.810              0.48225
        2.936              0.51251
        3.056              0.54335
        3.170              0.55389
        3.283              0.55542
        3.392              0.60310
        3.497              0.59469
        3.600              0.62857
        3.695              0.69972
        3.788              0.64616
        3.887              0.63217
        3.982              0.68665
        4.072              0.71566
        4.159              0.71887
        4.245              0.74299
        4.329              0.75867
        4.410              0.78390
        4.490              0.79193
        4.570              0.78830
        4.648              0.81127
        4.724              0.83845
        4.799              0.85062
        4.873              0.84519
        4.947              0.86185
        5.018              0.90113
        5.087              0.90543
        5.156              0.91887
        5.225              0.91697
        5.292              0.95326
        5.357              0.99329
        5.422              0.92554
        5.488              0.99855
        5.550              1.02370
        5.612              1.00567
        5.672              1.06354
        5.732              1.04050
        5.793              1.02745
        5.853              1.06123
        5.912              1.05514
        5.971              1.11063
        6.028              1.08052
        6.086              1.09053
        6.143              1.09191
        6.200              1.13048
        6.255              1.13189
        6.310              1.16121
        6.365              1.13868
        6.420              1.16173
        6.473              1.17548
        6.526              1.18644
        6.580              1.15844
        6.633              1.21714
        6.686              1.14134
        6.739              1.24040
        6.791              1.18819
        6.843              1.21089
        6.895              1.22526
        6.945              1.29723
        6.995              1.19621
        7.047              1.23448
        7.098              1.24239
        7.148              1.24258
        7.199              1.24182
        7.249              1.26499
        7.298              1.27756
        7.347              1.30860
        7.395              1.30095
        7.444              1.29885
        7.492              1.26833
        7.541              1.29863
        7.590              1.31098
        7.637              1.31757
        7.685              1.33204
        7.732              1.33913
        7.779              1.35699
        7.825              1.37162
        7.871              1.36042
        7.917              1.34009
        7.964              1.35780
        8.009              1.39872
        8.054              1.38656
        8.100              1.38413
        8.145              1.41404
        8.189              1.42615
        8.233              1.41189
        8.278              1.41508
        8.322              1.43316
        8.366              1.43761
        8.410              1.41128
        8.453              1.48891
        8.495              1.47306
        8.539              1.39799
        8.582              1.57698
        8.622              1.50087
        8.665              1.46913
        8.707              1.49607
        8.748              1.54752
        8.789              1.51776
        8.832              1.45214
        8.873              1.58959
        8.914              1.52551
        8.954              1.55313
        8.994              1.58643
        9.034              1.56526
        9.075              1.52096
        9.115              1.60404
        9.155              1.54141
        9.195              1.58932
        9.233              1.73100
        9.272              1.56559
        9.313              1.49850
        9.353              1.59558
        9.392              1.63063
        9.431              1.61326
        9.470              1.63933
        9.508              1.64545
        9.546              1.67351
        9.583              1.66859
        9.621              1.63522
        9.659              1.65947
        9.697              1.68836
        9.734              1.69102
        9.772              1.65741
        9.809              1.66785
        9.847              1.72404
        9.883              1.71418
        9.920              1.72289
        9.956              1.69780
        9.993              1.74767
       10.028              1.80554
       10.064              1.66585
       10.101              1.78071
       10.136              1.80881
       10.171              1.76300
       10.206              1.85005
       10.240              1.79319
       10.276              1.75647
       10.311              1.80446
       10.346              1.77970
       10.381              1.86126
       10.415              1.80038
       10.450              1.80433
       10.485              1.79598
       10.519              1.85065
       10.553              1.84083
       10.587              1.88054
       10.621              1.83673
       10.655              1.86344
       10.689              1.88106
       10.722              1.89308
       10.755              1.84233
       10.789              1.93166
       10.822              1.80637
       10.856              1.95733
       10.889              1.87111
       10.922              1.90283
       10.955              1.91891
       10.987              2.02989
       11.019              1.86497
       11.052              1.91758
       11.085              1.92512
       11.118              1.92112
       11.150              1.91415
       11.183              1.94348
       11.215              1.95892
       11.247              2.00117
       11.278              1.98092
       11.310              1.97201
       11.343              1.91758
       11.375              1.95810
       11.407              1.96947
       11.439              1.97263
       11.471              1.98985
       11.502              1.99223
       11.534              2.01413
       11.565              2.03005
       11.596              2.00685
       11.627              1.97278
       11.659              1.99160
       11.690              2.04595
       11.721              2.02391
       11.752              2.01331
       11.783              2.05234
       11.814              2.06051
       11.844              2.03938
       11.875              2.03507
       11.906              2.05791
       11.936              2.05882
       11.967              2.01213
       11.998              2.11767
       12.028              2.08911
       12.058              1.97757
       12.088              2.22746
       12.117              2.11379
       12.147              2.06449
       12.178              2.09688
       12.207              2.16382
       12.237              2.11791
       12.267              2.02102
       12.297              2.20980
       12.326              2.11630
       12.355              2.14905
       12.384              2.19178
       12.413              2.15821
       12.443              2.09407
       12.472              2.20143
       12.501              2.11373
       12.530              2.17505
       12.558              2.36625
       12.586              2.13510
       12.616              2.04083
       12.646              2.16726
       12.675              2.21352
       12.703              2.17992
       12.732              2.21026
       12.760              2.21601
       12.788              2.24925
       12.817              2.23404
       12.845              2.18552
       12.874              2.21581
       12.902              2.24905
       12.930              2.24622
       12.958              2.19705
       12.986              2.20753
       13.014              2.27865
       13.042              2.25881
       13.070              2.26666
       13.098              2.22872
       13.126              2.29181
       13.153              2.35969
       13.180              2.17859
       13.208              2.32140
       13.235              2.36215
       13.262              2.29300
       13.289              2.40558
       13.316              2.32912
       13.343              2.28212
       13.370              2.33456
       13.397              2.30209
       13.424              2.40504
       13.450              2.32112
       13.477              2.32609
       13.505              2.31117
       13.531              2.37622
       13.558              2.36356
       13.584              2.41076
       13.611              2.35067
       13.637              2.38484
       13.663              2.40249
       13.689              2.41449
       13.716              2.34713
       13.742              2.45682
       13.769              2.29462
       13.795              2.48368
       13.821              2.36946
       13.847              2.40766
       13.873              2.42526
       13.898              2.56176
       13.924              2.35096
       13.950              2.41854
       13.976              2.42299
       14.002              2.41565
       14.028              2.40372
       14.054              2.43852
       14.080              2.45376
       14.105              2.50651
       14.130              2.47777
       14.156              2.46279
       14.182              2.39497
       14.208              2.44082
       14.233              2.45328
       14.259              2.45481
       14.285              2.47400
       14.310              2.47523
       14.335              2.49941
       14.360              2.51576
       14.385              2.48466
       14.411              2.44193
       14.436              2.46271
       14.462              2.53020
       14.487              2.49675
       14.512              2.48606
       14.537              2.52798
       14.562              2.54281
       14.587              2.50743
       14.612              2.50542
       14.637              2.52679
       14.662              2.52772
       14.687              2.46871

